run,channel_index,channel,std,mean,min,max,high_amplitude_100_percent,high_amplitude_200_percent,clip_percent
1,1,FP1,229.59251849013282,12.596030323696516,-1000.0,1000.0001220703125,23.172058028205843,13.347557098114263,4.699785454912845
1,2,FPZ,225.50735644776847,6.681363589616701,-1000.0,1000.0001220703125,22.205713674426345,12.326536434034814,4.468005443858721
1,3,FP2,228.74324708529386,9.094029657724827,-1000.0,1000.0001220703125,23.66473912862602,13.14252093448946,4.526841908203229
1,4,AF7,226.9040843120241,9.23991137435839,-1000.0,1000.0001220703125,23.52804835287615,13.474738950333704,4.766347919625824
1,5,AF3,219.6916301810255,-14.804755159224396,-1000.0,1000.0001220703125,22.03693028176129,9.899383702893685,4.375887747157723
1,6,AFZ,216.5094224290292,0.3735307665769818,-1000.0,1000.0001220703125,15.013401639100692,9.173733975978083,4.3954999019392265
1,7,AF4,219.89925051526467,-15.853674055749877,-1000.0,1000.0001220703125,20.569584519472492,9.560033994401621,4.364595900465343
1,8,AF8,223.98982940189617,-0.3692942325251821,-1000.0,1000.0001220703125,23.476937888900114,10.768261590486322,4.425809595692458
1,9,F9,210.35046479255976,-13.624618276009572,-1000.0,1000.0001220703125,16.12594569216049,9.605795688891794,4.357464207817524
1,10,F7,212.19322062250365,-8.759761667405485,-1000.0,1000.0001220703125,17.282468516548498,9.738920618317753,4.365190208185995
1,11,F5,213.13729726307935,-16.757318080367007,-1000.0,1000.0001220703125,16.22697800467126,8.928879195069623,4.346172361125143
1,12,F3,210.5620808218963,12.860291886393536,-1000.0,1000.0001220703125,14.567670848611995,8.83141272888276,4.381830824364239
1,13,F1,211.850419568983,1.8593783372908517,-1000.0,1000.0001220703125,12.160724579973019,8.633508257905778,4.370538977671859
1,14,FZ,213.05383950364427,-8.659343212751105,-1000.0,1000.0001220703125,12.59575783148999,8.512269482892853,4.335474822153414
1,15,F2,209.43152227914624,21.150468505293002,-1000.0,1000.0001220703125,12.614181370830188,7.866256990544564,4.398471440542484
1,16,F4,213.1768601188865,-2.1808778821384474,-1000.0,1000.0001220703125,12.04602318988726,7.817523757451133,4.37113328539251
1,17,F6,213.65746803231434,2.697391675363921,-1000.0,1000.0001220703125,12.828132150264764,8.033257460047663,4.387179593850104
1,18,F8,214.51561860514724,5.329151786766345,-1000.0,1000.0001220703125,13.697010037857401,8.360126706406042,4.39312267105662
1,19,F10,219.55697114166912,-25.165903121240515,-1000.0,1000.0001220703125,25.728175534728372,8.398162400527745,4.418083595323987
1,20,FT9,208.83481492448954,-16.17842611817847,-1000.0,1000.0001220703125,13.912149432733282,8.005324997177038,4.359247130979479
1,21,FT7,209.12384526234277,-8.950445294773832,-1000.0,1000.0001220703125,12.886968614609273,8.140827157485603,4.3634072850240395
1,22,FC5,210.8226287495697,-13.56638342586422,-1000.0,1000.0001220703125,12.572579830384575,8.376173014863635,4.353898361493614
1,23,FC3,212.2733588288675,-15.732804164649002,-1000.0,1000.0001220703125,11.957471339510171,8.3066390115474,4.34498374568384
1,24,FC1,209.28033813219324,14.077315268842266,-1000.0,1000.0001220703125,10.915055597487267,7.778893755608779,4.3848023629674975
1,25,FCZ,210.98223402118487,1.636113244537541,-1000.0,1000.0001220703125,10.783713591223263,7.792562833183767,4.3634072850240395
1,26,FC2,212.75172125808325,-12.363605940381818,-1000.0,1000.0001220703125,11.105234068095779,7.774139293843567,4.34854959200775
1,27,FC4,212.1923609289723,-3.7934648616637756,-1000.0,1000.0001220703125,10.632165122457106,7.775922217005521,4.373510516275117
1,28,FC6,211.10401319810435,1.0545653664419392,-1000.0,1000.0001220703125,10.06460124923483,7.723028829867529,4.365190208185995
1,29,FT8,215.22072812878005,-19.151003584172546,-1000.0,1000.0001220703125,12.503045827068341,7.877548837236945,4.3580585155381755
1,30,FT10,214.4006939448124,-12.034961638622256,-1000.0,1000.0001220703125,12.72293968370943,7.895378068856493,4.377076362599026
1,31,T7,211.38533738766466,-28.72217101572454,-1000.0,1000.0001220703125,13.0266309289624,7.744423907810987,4.328937437226247
1,32,C5,209.59792546786346,-11.498735294240419,-1000.0,1000.0001220703125,11.054123604119741,7.671918365891492,4.334880514432763
1,33,C3,209.99068220693437,-1.189706273514429,-1000.0,1000.0001220703125,10.711802357024421,7.743235292369683,4.354492669214266
1,34,C1,206.61738790212448,28.623475545795593,-1000.0,1000.0001220703125,10.660691893048382,7.8442676048804545,4.43412990378158
1,35,CZ,211.47892363461565,-5.631798799999341,-1000.0,1000.0001220703125,10.720122665113543,7.79791160266963,4.365190208185995
1,36,C2,210.1391232194657,4.360469258647359,-1000.0,1000.0001220703125,10.355812032354113,7.772356370681612,4.383019439805542
1,37,C4,212.66716981558946,-10.59196809039455,-1000.0,1000.0001220703125,10.279146336390056,7.788996986859856,4.366973131347949
1,38,C6,211.26267330827946,3.4931167142842274,-1000.0,1000.0001220703125,9.955842936355586,7.785431140535946,4.40798036407291
1,39,T8,211.80409172680584,-4.231049516413004,-1000.0,1000.0001220703125,9.937419397015386,7.778893755608779,4.3746991317164206
1,40,TP9,209.44706052070538,-7.8263982331903925,-1000.0,1000.0001220703125,9.911269857306717,7.728971907074045,4.375887747157723
1,41,TP7,209.84894648273982,-12.400341560389782,-1000.0,1000.0001220703125,10.47705080736704,7.715302829499058,4.351521130611008
1,42,CP5,210.4548285847287,-13.434053817885482,-1000.0,1000.0001220703125,10.580460350760417,7.719462983543619,4.343795130242537
1,43,CP3,210.57552070828402,-11.567140842484713,-1000.0,1000.0001220703125,10.599478197821268,7.719462983543619,4.339634976197976
1,44,CP1,213.31428910440798,-17.314185048511977,-1000.0,1000.0001220703125,11.117120222508811,7.7753279092848695,4.349738207449053
1,45,CPZ,213.80090130658058,-22.154108265417634,-1000.0,1000.0001220703125,11.68587271117239,7.7913742177424625,4.334880514432763
1,46,CP2,211.03298908876238,-6.166722211659312,-1000.0,1000.0001220703125,10.233978949620534,7.745018215531638,4.353304053772963
1,47,CP4,212.30093108001753,-9.010610284446894,-1000.0,1000.0001220703125,10.032508632319642,7.773544986122914,4.375887747157723
1,48,CP6,210.81564489371712,-0.7583969418089478,-1000.0,1000.0001220703125,9.695536154710185,7.755715754503367,4.390745440174014
1,49,TP8,213.07626689403992,-20.223294492772244,-1000.0,1000.0001220703125,9.918401549954535,7.733132061118606,4.339634976197976
1,50,TP10,211.33912668979292,-5.4211395776649685,-1000.0,1000.0001220703125,9.702073539637352,7.770573447519656,4.373510516275117
1,51,P7,207.64020888108988,13.66417047484643,-1000.0,1000.0001220703125,9.696724770151489,7.724217445308831,4.4008486714250905
1,52,P5,213.31597212104117,-22.5810287291857,-1000.0,1000.0001220703125,10.922781597855739,7.769384832078353,4.349143899728401
1,53,P3,211.00631790299227,-8.323367073148166,-1000.0,1000.0001220703125,10.346303108823687,7.738480830604471,4.356869900096872
1,54,P1,212.19161027569828,-10.598353820116452,-1000.0,1000.0001220703125,10.51508650148874,7.762847447151186,4.353304053772963
1,55,PZ,211.9954127319718,-10.359919596222761,-1000.0,1000.0001220703125,10.386121726107342,7.774139293843567,4.342012207080582
1,56,P2,211.4987511920275,-4.551969967173878,-1000.0,1000.0001220703125,10.06876140327939,7.803260372155495,4.369944669951208
1,57,P4,210.9981053670482,-2.6122278547926454,-1000.0,1000.0001220703125,9.81618062200246,7.782459601932688,4.376482054878375
1,58,P6,212.78569106008064,-20.94749663559367,-1000.0,1000.0001220703125,10.16919940806951,7.758687293106625,4.332503283550157
1,59,P8,211.4233769690998,-12.77441710339711,-1000.0,1000.0001220703125,9.580834764624427,7.736103599721863,4.340823591639279
1,60,PO9,212.6886075827571,-28.97290348724726,-1000.0,1000.0001220703125,11.023219602645858,7.774733601564218,4.32240005229908
1,61,PO7,212.29946092161688,-20.730814606398884,-1000.0,1000.0001220703125,10.417025727581226,7.784242525094644,4.342012207080582
1,62,PO3,212.6343824760528,-17.96062649957426,-1000.0,1000.0001220703125,10.59650665921801,7.784836832815295,4.347955284287098
1,63,POZ,212.87813876996728,-17.655383045140614,-1000.0,1000.0001220703125,10.763507128721109,7.787808371418553,4.34498374568384
1,64,PO4,210.47104823247182,3.897338797759564,-1000.0,1000.0001220703125,9.653340306543923,7.850804989807622,4.410357594955516
1,65,PO8,211.47327161225186,-5.640283099668347,-1000.0,1000.0001220703125,9.688998769783018,7.822872526936997,4.378859285760981
1,66,PO10,210.8800151322542,-4.0726371716629375,-1000.0,1000.0001220703125,9.609361535215703,7.825249757819604,4.385990978408801
1,67,O1,217.33984894618274,-35.06042902658339,-1000.0,1000.0001220703125,32.06111860599181,7.774139293843567,4.340229283918627
1,68,OZ,212.90248447137935,-19.21282922712473,-1000.0,1000.0001220703125,11.083838990152321,7.767007601195747,4.346172361125143
1,69,O2,212.86536857062683,-14.370514246448518,-1000.0,1000.0001220703125,10.44792972905511,7.796128679507676,4.372321900833813
2,1,FP1,462.3718965555627,121.47560798168703,-1000.0,1000.0001220703125,44.32039810725209,31.612258313368212,22.728729674962377
2,2,FPZ,459.2993307239993,125.2641871106387,-1000.0,1000.0001220703125,41.969131476441156,30.944581167049673,22.477196299254093
2,3,FP2,460.0530403938312,125.22011533256578,-1000.0,1000.0001220703125,42.4868664808688,31.21512894480934,22.570638503620884
2,4,AF7,461.0030547408036,125.08821317823217,-1000.0,1000.0001220703125,43.058928348300384,32.534728447175276,22.62116248621456
2,5,AF3,461.3574349570081,108.29717879303216,-1000.0,1000.0001220703125,40.63377718380408,29.971587050648935,21.98064877139799
2,6,AFZ,457.8224555677131,118.26567169417068,-1000.0,1000.0001220703125,36.87327172667069,29.239260937355695,22.20936486464462
2,7,AF4,459.5258835147053,112.97382906626578,-1000.0,1000.0001220703125,38.9338896404105,29.650515290295594,22.05833618549364
2,8,AF8,460.4829634069784,117.4612758970802,-1000.0,1000.0001220703125,42.29780899761505,30.74465831119514,22.215340819575054
2,9,F9,458.9345575073063,112.75872905946079,-1000.0,1000.0001220703125,37.29376164632126,29.629871082354093,22.127874570138697
2,10,F7,458.71026608433806,114.98419628420062,-1000.0,1000.0001220703125,37.89081387073466,30.27907709525129,22.08169673658534
2,11,F5,460.80563201832615,105.26121055114537,-1000.0,1000.0001220703125,37.666443926528345,29.007285232328826,21.96489398112685
2,12,F3,455.43161675262706,123.41171394156659,-1000.0,1000.0001220703125,36.76027185162247,28.816054674554927,22.21968696861537
2,13,F1,456.56880149858995,117.18283571674094,-1000.0,1000.0001220703125,34.666514551450256,28.299406207387367,22.18872065670312
2,14,FZ,457.83567817405003,113.49722694891504,-1000.0,1000.0001220703125,34.9147883153783,28.263007209174724,22.122441883838302
2,15,F2,451.67359623698127,133.3092780090976,-1000.0,1000.0001220703125,34.66868762597041,28.038637264968408,22.37940794584698
2,16,F4,456.3846825572094,118.064883745874,-1000.0,1000.0001220703125,34.5969761668052,28.198358242200023,22.26532153353869
2,17,F6,455.83529726455544,120.30641945281096,-1000.0,1000.0001220703125,35.8926718494494,28.339608086010287,22.238701370666753
2,18,F8,456.8381933698344,121.84980929004644,-1000.0,1000.0001220703125,37.24812708139794,28.848107523727258,22.258802309978215
2,19,F10,462.5632857505722,103.132595180356,-1000.0,1000.0001220703125,40.76687799816375,28.954588175214997,22.03551890303198
2,20,FT9,458.9208404362186,109.65215049091631,-1000.0,1000.0001220703125,35.390148366662864,28.181516914668798,22.12081207794818
2,21,FT7,458.178238909056,111.49269158547146,-1000.0,1000.0001220703125,35.16577842245655,28.07177665140082,22.13765340547941
2,22,FC5,459.8418299249907,105.99042696823231,-1000.0,1000.0001220703125,35.01855262371585,28.008214221686195,22.094735183706288
2,23,FC3,459.4253812955181,105.84252257043939,-1000.0,1000.0001220703125,34.11944304100049,27.97507483525379,22.083869811105497
2,24,FC1,452.0775819541554,131.23330723412508,-1000.0,1000.0001220703125,33.45013608879183,27.67138767106171,22.39679254200825
2,25,FCZ,455.4944219501455,119.08967546546704,-1000.0,1000.0001220703125,33.06441536146379,27.734950100776327,22.270754219839084
2,26,FC2,458.10272497402394,110.66694979419168,-1000.0,1000.0001220703125,33.06441536146379,27.793079844190554,22.216427356835133
2,27,FC4,457.71407401434936,113.66502331214917,-1000.0,1000.0001220703125,33.037795198591844,27.87728648184668,22.279989786549756
2,28,FC6,456.4563083855487,116.369312414685,-1000.0,1000.0001220703125,33.18284792281239,27.763743338168425,22.25282635504778
2,29,FT8,460.8456983645894,104.91477370037217,-1000.0,1000.0001220703125,34.71377892226369,28.0027815353858,22.152864927120515
2,30,FT10,459.02108606415067,111.12712162095166,-1000.0,1000.0001220703125,34.488322440797305,28.033747847298052,22.20882159601458
2,31,T7,460.0550714768224,103.30844688864592,-1000.0,1000.0001220703125,33.97004416773962,27.760483726388184,22.15721107616083
2,32,C5,458.6863605930828,106.00765490619901,-1000.0,1000.0001220703125,33.19479983267326,27.667041522021396,22.045297738372692
2,33,C3,457.184471069026,113.30179611575461,-1000.0,1000.0001220703125,32.679781171395824,27.61923388257792,22.22023023724541
2,34,C1,448.4516672766997,143.3332546102311,-1000.0,1000.0001220703125,33.590842663972055,27.53991666259215,22.485888597334725
2,35,CZ,456.68906368306784,115.62412567436922,-1000.0,1000.0001220703125,32.448892003629034,27.556214721493337,22.278359980659637
2,36,C2,454.5337713243872,122.17783473251983,-1000.0,1000.0001220703125,32.59340145921954,27.565993556834044,22.316932053392442
2,37,C4,458.40087859808654,111.11622971896304,-1000.0,1000.0001220703125,32.638492755512814,27.811550977611898,22.250653280527622
2,38,C6,454.9631869922435,123.16286635320947,-1000.0,1000.0001220703125,32.68575712632625,27.791450038300436,22.356047394755286
2,39,T8,457.70995630494616,113.87008827505382,-1000.0,1000.0001220703125,32.68141097728594,27.815353858022174,22.24033117655687
2,40,TP9,455.9083528552218,117.90944381016962,-1000.0,1000.0001220703125,32.000152115216416,27.676277088732064,22.266408070798768
2,41,TP7,458.5572699351283,107.00313534186057,-1000.0,1000.0001220703125,32.02351266630811,27.69311841626329,22.149605315340278
2,42,CP5,458.6935022687339,106.43456992575435,-1000.0,1000.0001220703125,32.07403664890178,27.664868447501235,22.146345703560037
2,43,CP3,458.2731501977188,107.55754800151851,-1000.0,1000.0001220703125,32.06208473904091,27.61543100216764,22.147975509450156
2,44,CP1,457.9907153725795,111.50624219879073,-1000.0,1000.0001220703125,32.37337766405354,27.755051040087793,22.270210951209044
2,45,CPZ,459.45886530521653,104.96815588653654,-1000.0,1000.0001220703125,32.74334360111044,27.73440683214629,22.183287970402727
2,46,CP2,455.42142757317504,117.69230094240677,-1000.0,1000.0001220703125,32.12782024327569,27.527421484101243,22.250653280527622
2,47,CP4,456.72789087115194,115.61181420782799,-1000.0,1000.0001220703125,32.26907008708596,27.655089612160527,22.266951339428807
2,48,CP6,455.99584238926207,117.60696195973891,-1000.0,1000.0001220703125,32.11912794519506,27.663238641611116,22.281619592439874
2,49,TP8,460.0307737267144,103.19489520818436,-1000.0,1000.0001220703125,32.12293082560534,27.755051040087793,22.121898615208263
2,50,TP10,456.89101269776137,115.4709437473365,-1000.0,1000.0001220703125,32.037094382059095,27.74744527926724,22.259345578608254
2,51,P7,453.56037476925115,125.11685836120138,-1000.0,1000.0001220703125,32.256031639965016,27.56327721368385,22.30932629257189
2,52,P5,458.4236109678121,109.29650919652201,-1000.0,1000.0001220703125,31.984940593575306,27.764829875428504,22.193066805743435
2,53,P3,457.1770563666516,113.26539246467533,-1000.0,1000.0001220703125,32.06371454493103,27.789276963780278,22.18817738807308
2,54,P1,456.6883249056871,116.7885805516628,-1000.0,1000.0001220703125,32.32394021871995,27.87457013869648,22.294114770930783
2,55,PZ,456.6292649369284,115.27389447845003,-1000.0,1000.0001220703125,32.28591141461719,27.78764715789016,22.245220594227227
2,56,P2,455.82063444378457,117.45231808767717,-1000.0,1000.0001220703125,32.26363740078557,27.752877965567635,22.27618690613948
2,57,P4,456.73895685130674,115.41658503854676,-1000.0,1000.0001220703125,32.15063752573735,27.813724052132056,22.247936937377425
2,58,P6,459.328498801854,104.698097648113,-1000.0,1000.0001220703125,32.05719532137056,27.775151979399254,22.118095734797986
2,59,P8,457.9131692398948,109.82850118328918,-1000.0,1000.0001220703125,31.827392690863853,27.817526932542336,22.141999554519725
2,60,PO9,460.9869904579745,97.62432596106092,-1000.0,1000.0001220703125,31.69700821965437,27.709416475164474,22.026283336321313
2,61,PO7,459.2636104595029,105.0038457635074,-1000.0,1000.0001220703125,31.86542149496662,27.793079844190554,22.12624476424858
2,62,PO3,458.94581407363574,108.12092630885296,-1000.0,1000.0001220703125,32.12184428834526,27.856099005275137,22.154494733010633
2,63,POZ,458.911727717439,107.94734565678961,-1000.0,1000.0001220703125,32.294603712697814,27.82024327569253,22.1485187780802
2,64,PO4,455.51625220338923,119.9760882607367,-1000.0,1000.0001220703125,32.212026880931816,27.84632016993443,22.281076323809835
2,65,PO8,454.76585854151716,121.34278497409038,-1000.0,1000.0001220703125,32.26200759489545,27.79633945597079,22.267494608058847
2,66,PO10,456.1946063281657,117.20260293563912,-1000.0,1000.0001220703125,32.004498264256725,27.909339331019005,22.237071564776638
2,67,O1,457.37069585170497,111.69482198314815,-1000.0,1000.0001220703125,32.05176263507016,27.719195310505185,22.15884088205095
2,68,OZ,457.20985070624255,111.62115237067708,-1000.0,1000.0001220703125,32.01319056233736,27.74635874200716,22.14743224082012
2,69,O2,457.65926236449394,111.76128786618973,-1000.0,1000.0001220703125,32.234300894763436,27.868050915136006,22.171336060541858
3,1,FP1,78.98293050742235,68.42511517963197,-1000.0,1000.0001220703125,28.780125037813853,4.80803166280125,0.27856206514066756
3,2,FPZ,116.19429592606646,68.75726761441626,-1000.0,1000.0001220703125,34.88202077241101,7.407734193808611,1.0379903196531208
3,3,FP2,79.07191663064587,75.78868420395565,-1000.0,1000.0001220703125,31.931909851769692,5.575022688312998,0.20482504789754966
3,4,AF7,89.16995479063266,84.92919349934387,-1000.0,1000.0001220703125,31.8121659776142,6.001689018856509,0.7707724110113946
3,5,AF3,68.25110467974876,64.61722138425552,-1000.0,1000.0001220703125,24.48321064838157,3.5444186750025213,0.10398810124029445
3,6,AFZ,57.09060500993267,73.2669231300577,-1000.0,1000.0001220703125,26.431884642533028,1.7835534940002018,0.010083694665725522
3,7,AF4,66.39142699485716,67.72653294828865,-1000.0,1000.0001220703125,25.956690531410707,2.5133608954320863,0.03970454774629424
3,8,AF8,81.71145689010704,71.33768085921541,-1000.0,1000.0001220703125,28.988731471211054,4.539553292326309,0.4758243420389231
3,9,F9,60.96074441818702,64.09255227469161,-1000.0,1000.0001220703125,23.311611374407583,3.0251083997176567,0.010083694665725522
3,10,F7,59.972555501809076,65.25371003338248,-1000.0,1000.0001220703125,23.291443985076132,3.0169153978017547,0.010083694665725522
3,11,F5,54.82463725851707,54.298335635293924,-1000.0,1000.0001220703125,18.19476656246849,1.460245033780377,0.009453463749117676
3,12,F3,55.16456449808608,66.98984464684399,-1000.0,1000.0001220703125,23.488706261974386,2.017369164061712,0.009453463749117676
3,13,F1,52.68380287169199,59.837386736350005,-1000.0,1000.0001220703125,20.377256226681457,0.7380004033477866,0.009453463749117676
3,14,FZ,52.627993827863655,66.72793012207765,-1000.0,1000.0001220703125,22.92654028436019,1.2724362206312392,0.009453463749117676
3,15,F2,51.6574538202399,86.67240151564357,-1000.0,1000.0001220703125,33.36631541796915,1.9348089139860845,0.008823232832509832
3,16,F4,52.25404853654474,74.26740049368654,-1000.0,1000.0001220703125,26.56423313502067,1.27810829888071,0.008823232832509832
3,17,F6,56.33571966542284,75.20443314559533,-1000.0,1000.0001220703125,28.655339316325502,1.9908994655641827,0.012604618332156902
3,18,F8,58.55965499301239,68.95807663481713,-1000.0,1000.0001220703125,25.434859332459414,2.3242916204497326,0.010713925582333368
3,19,F10,58.7961506916694,57.18956736438857,-1000.0,1000.0001220703125,19.167212866794394,2.250554603206615,0.008823232832509832
3,20,FT9,50.31993853398427,52.465091639925994,-1000.0,1000.0001220703125,15.43057376222648,1.138827266310376,0.010083694665725522
3,21,FT7,50.284496885616065,57.87035225691437,-1000.0,1000.0001220703125,17.96914389432288,1.074543712816376,0.010083694665725522
3,22,FC5,50.235059187623015,51.244207248188616,-1000.0,1000.0001220703125,15.941691035595444,0.6151053746092568,0.009453463749117676
3,23,FC3,52.53015586906353,52.691235925832004,-1000.0,1000.0001220703125,18.03657860239992,0.3932640919632953,0.009453463749117676
3,24,FC1,49.884033952804565,77.79663221528347,-1000.0,1000.0001220703125,27.994857315720477,0.9447161439951599,0.009453463749117676
3,25,FCZ,51.374616318473954,65.89277791045005,-1000.0,1000.0001220703125,22.846500957950994,0.5426288191993547,0.009453463749117676
3,26,FC2,50.18403200874999,59.54029326655592,-1000.0,1000.0001220703125,20.403095694262376,0.2728899868911969,0.009453463749117676
3,27,FC4,48.73260061454705,62.17077718179236,-1000.0,1000.0001220703125,21.1278612483614,0.3144852273873147,0.008823232832509832
3,28,FC6,47.82981877557258,63.816909677391195,-1000.0,1000.0001220703125,22.129928405767874,0.5199405062014723,0.008823232832509832
3,29,FT8,48.24357520663412,45.99176572980726,-1000.0,1000.0001220703125,15.034158515680145,0.6125844509428255,0.008823232832509832
3,30,FT10,47.26868675640054,64.51681850879432,-1000.0,1000.0001220703125,22.44630432590501,0.8564838156700614,0.008823232832509832
3,31,T7,30.771721779442558,7.80640707566081,-1000.0,1000.0001220703125,0.9346324493294342,0.013234849248764747,0.010083694665725522
3,32,C5,46.887610847244,47.537144258505755,-1000.0,1000.0001220703125,14.040914591106182,0.26784813955833414,0.009453463749117676
3,33,C3,44.626076946681884,64.7789976219589,-1000.0,1000.0001220703125,20.912952505798124,0.37057577896541294,0.008823232832509832
3,34,C1,49.532345578709155,94.22888442325304,-1000.0,1000.0001220703125,37.592643944741354,3.175733588786932,0.008823232832509832
3,35,CZ,50.74266531363077,59.00717480441594,-1000.0,1000.0001220703125,20.16864979328426,0.2514621357265302,0.008823232832509832
3,36,C2,49.370133128291826,70.12774513248988,-1000.0,1000.0001220703125,24.37796208530806,0.3869617827972169,0.008823232832509832
3,37,C4,46.40269290142526,63.70879307344022,-1000.0,1000.0001220703125,20.99866391045679,0.17961581123323586,0.008823232832509832
3,38,C6,45.73124132068268,75.47535085691314,-1000.0,1000.0001220703125,26.954346072400924,0.44305233437531516,0.008823232832509832
3,39,T8,47.329912696950565,64.50007692418482,-1000.0,1000.0001220703125,22.030982151860442,0.5867449833619037,0.008823232832509832
3,40,TP9,55.306888393294145,84.81802059587349,-1000.0,1000.0001220703125,33.0890138146617,3.4038771805989714,0.009453463749117676
3,41,TP7,43.430972252065615,40.31370043651923,-1000.0,1000.0001220703125,9.675305031763639,0.04600685691237269,0.009453463749117676
3,42,CP5,47.06181406046425,53.53789695484196,-1000.0,1000.0001220703125,16.699228597358072,0.1632298074014319,0.009453463749117676
3,43,CP3,46.06579600657175,62.480832378912105,-1000.0,1000.0001220703125,19.211329030956943,0.2980992235555108,0.008823232832509832
3,44,CP1,47.751622911658664,62.52817889142652,-1000.0,1000.0001220703125,20.122012705455276,0.21175758798023595,0.008823232832509832
3,45,CPZ,49.138105385062886,49.679492294750986,-1000.0,1000.0001220703125,16.561838257537563,0.08319048099223555,0.009453463749117676
3,46,CP2,45.8098407385736,68.83744163990606,-1000.0,1000.0001220703125,23.84982857719068,0.052939396995058986,0.008823232832509832
3,47,CP4,47.164383687896176,66.48411155199419,-1000.0,1000.0001220703125,22.528234345064032,0.12226479782192196,0.008823232832509832
3,48,CP6,45.43173702758806,68.47668480066471,-1000.0,1000.0001220703125,23.080316628012504,0.058611475244529594,0.008823232832509832
3,49,TP8,37.413465947782875,35.25489601106933,-1000.0,1000.0001220703125,6.476883129978825,0.011344156498941212,0.008823232832509832
3,50,TP10,44.82851683994108,47.34282071339054,-1000.0,1000.0001220703125,14.250151255419985,0.027099929414137337,0.008823232832509832
3,51,P7,47.16586422119291,66.40168143181248,-1000.0,1000.0001220703125,21.184582030856106,0.5804426741958253,0.008823232832509832
3,52,P5,49.85096837649675,56.15026032696005,-1000.0,1000.0001220703125,18.432993848946253,0.21553897347988304,0.009453463749117676
3,53,P3,45.249579100238684,55.402792628019824,-1000.0,1000.0001220703125,16.70237975194111,0.08129978824241202,0.008823232832509832
3,54,P1,49.07680194682967,82.35227076932593,-1000.0,1000.0001220703125,30.131340123021076,1.3386104668750631,0.008823232832509832
3,55,PZ,52.314990159672035,88.2825423613759,-1000.0,1000.0001220703125,34.27762932338409,2.653272158919028,0.008823232832509832
3,56,P2,37.05977549831652,52.521681668252064,-1000.0,1000.0001220703125,10.805939296158112,0.011344156498941212,0.008823232832509832
3,57,P4,47.63397335587185,63.08047668196329,-1000.0,1000.0001220703125,20.965261671876576,0.10776948673994152,0.008823232832509832
3,58,P6,46.39656156645399,55.11057165344383,-1000.0,1000.0001220703125,17.61495411918927,0.017016234748411817,0.008823232832509832
3,59,P8,44.811332509796635,51.36635972328364,-1000.0,1000.0001220703125,16.291469194312796,0.011974387415549057,0.008823232832509832
3,60,PO9,48.80514822625406,48.49831798122165,-1000.0,1000.0001220703125,15.879298174851266,0.07814863365937279,0.010083694665725522
3,61,PO7,47.09692901398385,54.97373076818789,-1000.0,1000.0001220703125,17.406977916708684,0.11974387415549057,0.008823232832509832
3,62,PO3,48.41253982361218,50.1509789165448,-1000.0,1000.0001220703125,16.20260663507109,0.08193001915901987,0.008823232832509832
3,63,POZ,50.4001437618459,56.61026885883859,-1000.0,1000.0001220703125,19.111752546132905,0.15314611273570639,0.008823232832509832
3,64,PO4,46.49580554231213,68.08918589862328,-1000.0,1000.0001220703125,22.814359181203994,0.21427851164666734,0.008823232832509832
3,65,PO8,46.13087557174081,80.38784636391526,-1000.0,1000.0001220703125,28.470051426842797,0.7146818594332964,0.008823232832509832
3,66,PO10,45.815619421950416,64.94514766479323,-1000.0,1000.0001220703125,21.1039124735303,0.09768579207421599,0.008823232832509832
3,67,O1,47.48251372390079,65.28964006972743,-1000.0,1000.0001220703125,21.343400221841282,0.28423414339013814,0.008823232832509832
3,68,OZ,47.11614493751962,60.34343993721497,-1000.0,1000.0001220703125,19.209438338207118,0.1928506604820006,0.009453463749117676
3,69,O2,48.18867520449724,62.22261467629979,-1000.0,1000.0001220703125,20.54237672683271,0.2697388323081577,0.009453463749117676
4,1,FP1,138.58672168566432,21.659878713478168,-1000.0,1000.0001220703125,6.867978888243269,3.9021644392794888,2.08030699205888
4,2,FPZ,143.18947408007898,29.23675858970723,-1000.0,1000.0001220703125,7.513194847956614,4.135192717412357,2.205597520821228
4,3,FP2,134.46153752089623,30.629629390582,-1000.0,1000.0001220703125,7.166981406159209,3.8882432694170057,1.8999370521014913
4,4,AF7,141.2144019941173,34.62462180064675,-1000.0,1000.0001220703125,7.628801084640713,4.317378462134418,2.013727484020918
4,5,AF3,136.82413103688975,15.91364941169426,-1000.0,1000.0001220703125,6.066603718768158,3.5995303118342052,1.9659112918845632
4,6,AFZ,132.2948094930864,25.48874818254758,-1000.0,1000.0001220703125,5.681047840402866,3.4348973465039707,1.964700755374782
4,7,AF4,130.23270187060314,25.920210556735565,-1000.0,1000.0001220703125,5.839628123184195,3.5002663180321516,1.721382916908774
4,8,AF8,130.49972799454915,23.01104431921797,-1000.0,1000.0001220703125,7.3025614952546976,3.7762686422622505,1.442959519659113
4,9,F9,144.8882559759853,17.98298700284597,-1000.0,1000.0001220703125,6.822583769126476,4.485037768739105,2.0288591903931823
4,10,F7,143.57517688412074,17.87825710588585,-1000.0,1000.0001220703125,6.728161921363548,4.5467751307379425,2.0155432887855897
4,11,F5,136.88367329240603,10.881849515166493,-1000.0,1000.0001220703125,6.029077086964943,3.803505713732326,1.9653060236296724
4,12,F3,136.27635980288977,20.445972202414005,-1000.0,1000.0001220703125,6.311737361998839,3.8846116598876623,1.9786219252372652
4,13,F1,133.4283549270181,11.521193069607252,-1000.0,1000.0001220703125,5.132674801472013,3.2551326748014717,1.9477532442378462
4,14,FZ,131.50428126999756,21.45825264857349,-1000.0,1000.0001220703125,5.285807669959326,3.1855268254890565,1.9265688553166762
4,15,F2,129.1019143934813,41.84312068542338,-1000.0,1000.0001220703125,5.607205113306217,3.3949496416811926,1.9423058299438312
4,16,F4,129.88959058985438,26.453319650684627,-1000.0,1000.0001220703125,5.122385241138873,3.2781328684873134,1.8472787139260123
4,17,F6,128.57140760776568,28.288229980118178,-1000.0,1000.0001220703125,5.714337594421847,3.398581251210536,1.527091807088902
4,18,F8,128.0605471118084,21.550945068033112,-1000.0,1000.0001220703125,6.766899089676545,3.611030408677126,1.4145119116792564
4,19,F10,133.51891993853363,7.057881173022317,-1000.0,1000.0001220703125,7.0071905868681,3.91366453612241,1.5131706372264189
4,20,FT9,139.19259558583377,18.74708836187197,-1000.0,1000.0001220703125,6.181604687197366,4.163640325392214,2.0076748014720125
4,21,FT7,138.24597302631952,12.75767274515461,-1000.0,1000.0001220703125,5.9758134805345735,3.934848925043579,1.9961747046290919
4,22,FC5,136.7020974571684,5.028927392725575,-1000.0,1000.0001220703125,5.713732326166957,3.6237410420298275,1.9683323649041253
4,23,FC3,132.9128097986567,11.113814275147714,-1000.0,1000.0001220703125,5.241017819097424,3.1074472206081736,1.9362531473949254
4,24,FC1,130.41333378917506,36.23574986607258,-1000.0,1000.0001220703125,5.57815223707147,3.3677125702111175,1.9816482665117179
4,25,FCZ,131.35364902096268,20.85314401482549,-1000.0,1000.0001220703125,4.951094325004842,3.2188165795080383,1.9513848537671896
4,26,FC2,132.16419312651252,10.948297362293166,-1000.0,1000.0001220703125,4.6175915165601396,3.1522370714700756,1.9598586093356578
4,27,FC4,130.65751772053375,16.544656641319456,-1000.0,1000.0001220703125,4.557669959325973,3.2182113112531474,1.914463490218865
4,28,FC6,128.98266667238153,16.824034916480876,-1000.0,1000.0001220703125,4.555854154561302,3.260580089095487,1.5131706372264189
4,29,FT8,130.78442962817508,-2.628232295458688,-1000.0,1000.0001220703125,4.465669184582607,3.121973658725547,1.600934534185551
4,30,FT10,128.3855595903842,17.85761731832447,-1000.0,1000.0001220703125,4.89540964555491,3.2502905287623474,1.426012008522177
4,31,T7,137.15314515716048,-9.696810852592378,-1000.0,1000.0001220703125,5.469809219446058,3.345922913035057,1.9755955839628123
4,32,C5,134.51351524910345,2.1949888476356034,-1000.0,1000.0001220703125,5.285202401704436,3.228500871586287,1.9513848537671896
4,33,C3,132.293277985328,22.762061160271898,-1000.0,1000.0001220703125,5.340281812899477,3.2866066240557816,1.9598586093356578
4,34,C1,128.8199458821538,40.88213502791493,-1000.0,1000.0001220703125,5.508546387759055,3.345922913035057,1.9205161727677709
4,35,CZ,132.3857598376863,13.154240859221016,-1000.0,1000.0001220703125,4.839724966104978,3.2527116017819093,1.9616744141003295
4,36,C2,130.62552119264058,24.59583628587241,-1000.0,1000.0001220703125,4.832461747046291,3.3174753050552,1.9653060236296724
4,37,C4,130.25812688787877,12.794869599862624,-1000.0,1000.0001220703125,4.414221382916908,3.1746319969010264,1.8636209568080573
4,38,C6,128.3310667012891,27.118127432701783,-1000.0,1000.0001220703125,4.614565175285686,3.3465281812899477,1.5876186325779584
4,39,T8,129.77084276990803,15.193139107351584,-1000.0,1000.0001220703125,4.495327329072245,3.271474917683517,1.766172767770676
4,40,TP9,133.3403615442661,28.60554139380939,-1000.0,1000.0001220703125,6.129551617276777,3.34894925430951,1.9925430950997483
4,41,TP7,135.1691375949465,0.6479940734461488,-1000.0,1000.0001220703125,5.180490993608367,3.2393957001743168,1.9768061204725935
4,42,CP5,133.83372089871702,9.0126213473616,-1000.0,1000.0001220703125,5.15204338562851,3.2533168700368003,1.97317451094325
4,43,CP3,131.32242612855075,18.328112551327,-1000.0,1000.0001220703125,5.06609529343405,3.266632771644393,1.9477532442378462
4,44,CP1,131.55868341498748,18.743100453187186,-1000.0,1000.0001220703125,5.001936858415649,3.2720801859384077,1.953805926786752
4,45,CPZ,133.08269898133028,7.088444629967745,-1000.0,1000.0001220703125,4.696276389695913,3.216395506488476,1.9755955839628123
4,46,CP2,129.21603400944196,34.88835909712597,-1000.0,1000.0001220703125,5.011621150493899,3.3937391051714116,1.8908580282781327
4,47,CP4,130.36860643220479,18.525774359948475,-1000.0,1000.0001220703125,4.475958744915746,3.294475111369359,1.9126476854541934
4,48,CP6,129.16920455400577,22.046641406806,-1000.0,1000.0001220703125,4.429958357544064,3.299922525663374,1.7752517915940342
4,49,TP8,131.3532957820403,-1.5180919951093301,-1000.0,1000.0001220703125,4.1951142746465235,3.1274210730195624,1.904779198140616
4,50,TP10,130.93807046552226,10.838905622256563,-1000.0,1000.0001220703125,4.284693976370328,3.1825004842146036,1.9507795855122991
4,51,P7,135.19945933654483,8.020534204486426,-1000.0,1000.0001220703125,6.561713151268641,3.302948866937827,1.9707534379236877
4,52,P5,132.8330097176721,7.772821989498038,-1000.0,1000.0001220703125,4.843961843889211,3.2248692620569437,1.9610691458454388
4,53,P3,131.04302169401493,15.322135948757229,-1000.0,1000.0001220703125,4.817330040674027,3.1655529730776677,1.9362531473949254
4,54,P1,128.4759658605827,39.71454814235216,-1000.0,1000.0001220703125,5.295491962037575,3.3386596939763704,1.8315417392988573
4,55,PZ,129.67305899776642,34.17708389801299,-1000.0,1000.0001220703125,5.10846407127639,3.3556072051133063,1.929595196591129
4,56,P2,129.39656211729118,27.0422818952279,-1000.0,1000.0001220703125,4.902672864613597,3.3537914003486344,1.769199109045129
4,57,P4,130.56302240171308,16.156043316795827,-1000.0,1000.0001220703125,4.488669378268448,3.2884224288204535,1.9289899283362384
4,58,P6,130.93676985763358,8.407976701693494,-1000.0,1000.0001220703125,4.3185889986441985,3.2393957001743168,1.9259635870617857
4,59,P8,130.71568627870192,6.051152193418078,-1000.0,1000.0001220703125,4.277430757311641,3.172210923881464,1.8999370521014913
4,60,PO9,134.57077805767682,11.194436889722814,-1000.0,1000.0001220703125,4.7513558008909555,3.267843308154174,1.9937536316095295
4,61,PO7,131.87912063581717,15.216244277345627,-1000.0,1000.0001220703125,4.767698043773,3.280553941506876,1.9653060236296724
4,62,PO3,132.4236644740663,6.973380074163121,-1000.0,1000.0001220703125,4.692039511911679,3.2170007747433664,1.9550164632965332
4,63,POZ,130.31261258264232,19.4384804782427,-1000.0,1000.0001220703125,4.767092775518109,3.2847908192911097,1.8666472980825102
4,64,PO4,130.14749875115342,19.86116618481471,-1000.0,1000.0001220703125,4.523774937052102,3.29508037962425,1.8545419329846986
4,65,PO8,128.62238949522185,34.664910941855354,-1000.0,1000.0001220703125,4.8155142359093555,3.4324762734844083,1.7486199883788496
4,66,PO10,129.73839554469143,18.486487398020753,-1000.0,1000.0001220703125,4.520143327522758,3.278738136742204,1.7104880883207436
4,67,O1,131.3050386261879,20.006717299372653,-1000.0,1000.0001220703125,4.711408096068177,3.3320017431725737,1.96227968235522
4,68,OZ,131.5352404910906,11.054549609183123,-1000.0,1000.0001220703125,4.497143133836916,3.2757117954677515,1.925358318806895
4,69,O2,130.94011919533006,17.462606956294437,-1000.0,1000.0001220703125,4.563722641874879,3.3138436955258572,1.8642262250629478
